Model,TBS1102C
Firmware Version,v2015-08-04-prequal4ch70_v1.3

Point Format,Y
Horizontal Units,S
Horizontal Scale,2e-05
Sample Interval,1.6e-07
Filter Frequency,2e+08
Record Length,2000
Gating,0.0% to 100.0%
Probe Attenuation,1
Vertical Units,V
Vertical Offset,0
Vertical Scale,0.02
Label,
TIME,CH1
-1.664e-04,0.000384375
-1.662e-04,0.000278125
-1.661e-04,0.0003
-1.659e-04,0.000178125
-1.658e-04,0.000240625
-1.656e-04,0.000203125
-1.654e-04,0.00014375
-1.653e-04,0.000184375
-1.651e-04,0.000165625
-1.650e-04,0.00026875
-1.648e-04,0.00029375
-1.646e-04,0.000390625
-1.645e-04,0.000378125
-1.643e-04,0.00021875
-1.642e-04,0.000265625
-1.640e-04,8.75e-05
-1.638e-04,0.0003125
-1.637e-04,0.0003875
-1.635e-04,0.0003375
-1.634e-04,0.000290625
-1.632e-04,0.000221875
-1.630e-04,0.000375
-1.629e-04,0.000221875
-1.627e-04,0.00013125
-1.626e-04,-6.5625e-05
-1.624e-04,-3.75e-05
-1.622e-04,8.4375e-05
-1.621e-04,0.00033125
-1.619e-04,0.000334375
-1.618e-04,0.0003875
-1.616e-04,0.000359375
-1.614e-04,0.000403125
-1.613e-04,0.000234375
-1.611e-04,0.000384375
-1.610e-04,0.000228125
-1.608e-04,0.00014375
-1.606e-04,0.000409375
-1.605e-04,0.000171875
-1.603e-04,0.000240625
-1.602e-04,0.00021875
-1.600e-04,0.000190625
-1.598e-04,0.000303125
-1.597e-04,0.000196875
-1.595e-04,0.000296875
-1.594e-04,0.00030625
-1.592e-04,0.00028125
-1.590e-04,0.000328125
-1.589e-04,0.000321875
-1.587e-04,0.00018125
-1.586e-04,7.1875e-05
-1.584e-04,0.0003125
-1.582e-04,0.0005125
-1.581e-04,0.000546875
-1.579e-04,0.000478125
-1.578e-04,0.000128125
-1.576e-04,7.1875e-05
-1.574e-04,8.125e-05
-1.573e-04,6.875e-05
-1.571e-04,3.4375e-05
-1.570e-04,0.00015625
-1.568e-04,0.0001875
-1.566e-04,0.00013125
-1.565e-04,0.000178125
-1.563e-04,0.00026875
-1.562e-04,0.000265625
-1.560e-04,0.000396875
-1.558e-04,0.000259375
-1.557e-04,0.000221875
-1.555e-04,0.00028125
-1.554e-04,0.00011875
-1.552e-04,0.000246875
-1.550e-04,0.00025625
-1.549e-04,0.00010625
-1.547e-04,0.000334375
-1.546e-04,0.000346875
-1.544e-04,0.000228125
-1.542e-04,0.000153125
-1.541e-04,0.00026875
-1.539e-04,0.000209375
-1.538e-04,8.125e-05
-1.536e-04,0.0001625
-1.534e-04,0.000128125
-1.533e-04,0.0001875
-1.531e-04,0.00020625
-1.530e-04,0.000209375
-1.528e-04,0.00028125
-1.526e-04,0.000203125
-1.525e-04,-0.000103125
-1.523e-04,0.000175
-1.522e-04,0.000284375
-1.520e-04,-0.000125
-1.518e-04,-0.00111875
-1.517e-04,-0.00162187
-1.515e-04,-0.00206875
-1.514e-04,-0.00138125
-1.512e-04,0.0269562
-1.510e-04,0.0706062
-1.509e-04,0.0808
-1.507e-04,0.0808
-1.506e-04,0.0808
-1.504e-04,0.0808
-1.502e-04,0.0808
-1.501e-04,0.0808
-1.499e-04,0.0808
-1.498e-04,0.0808
-1.496e-04,0.0808
-1.494e-04,0.0797031
-1.493e-04,0.0578375
-1.491e-04,0.0323625
-1.490e-04,0.0168375
-1.488e-04,0.0121344
-1.486e-04,0.0143531
-1.485e-04,0.019425
-1.483e-04,0.0240375
-1.482e-04,0.0266437
-1.480e-04,0.0274812
-1.478e-04,0.0263031
-1.477e-04,0.0248094
-1.475e-04,0.0230687
-1.474e-04,0.0218562
-1.472e-04,0.0209937
-1.470e-04,0.0207094
-1.469e-04,0.0204125
-1.467e-04,0.0204187
-1.466e-04,0.0203437
-1.464e-04,0.0201844
-1.462e-04,0.0201156
-1.461e-04,0.0197844
-1.459e-04,0.0195406
-1.458e-04,0.0193812
-1.456e-04,0.0194312
-1.454e-04,0.0193344
-1.453e-04,0.0192875
-1.451e-04,0.0192406
-1.450e-04,0.0193937
-1.448e-04,0.0194625
-1.446e-04,0.01935
-1.445e-04,0.019575
-1.443e-04,0.0194594
-1.442e-04,0.0195594
-1.440e-04,0.0195531
-1.438e-04,0.0196875
-1.437e-04,0.0197969
-1.435e-04,0.0196656
-1.434e-04,0.0197531
-1.432e-04,0.0197594
-1.430e-04,0.0196844
-1.429e-04,0.0198125
-1.427e-04,0.0199531
-1.426e-04,0.0197719
-1.424e-04,0.0199062
-1.422e-04,0.0198375
-1.421e-04,0.0197594
-1.419e-04,0.0199031
-1.418e-04,0.0198687
-1.416e-04,0.0199875
-1.414e-04,0.0199531
-1.413e-04,0.0198656
-1.411e-04,0.0199437
-1.410e-04,0.0199094
-1.408e-04,0.0198969
-1.406e-04,0.0198312
-1.405e-04,0.0198094
-1.403e-04,0.0198812
-1.402e-04,0.0200969
-1.400e-04,0.0199531
-1.398e-04,0.0200469
-1.397e-04,0.0198062
-1.395e-04,0.0198
-1.394e-04,0.0198062
-1.392e-04,0.0197937
-1.390e-04,0.0197281
-1.389e-04,0.0196156
-1.387e-04,0.0195094
-1.386e-04,0.0197
-1.384e-04,0.0197562
-1.382e-04,0.0198187
-1.381e-04,0.0197469
-1.379e-04,0.0195812
-1.378e-04,0.0195031
-1.376e-04,0.0197156
-1.374e-04,0.0196312
-1.373e-04,0.0196875
-1.371e-04,0.0197125
-1.370e-04,0.0196437
-1.368e-04,0.019525
-1.366e-04,0.019575
-1.365e-04,0.0197312
-1.363e-04,0.0199594
-1.362e-04,0.0197312
-1.360e-04,0.0196937
-1.358e-04,0.0196906
-1.357e-04,0.0197094
-1.355e-04,0.0196219
-1.354e-04,0.0196281
-1.352e-04,0.0197719
-1.350e-04,0.0197281
-1.349e-04,0.0198156
-1.347e-04,0.0197656
-1.346e-04,0.0198219
-1.344e-04,0.0198375
-1.342e-04,0.0199531
-1.341e-04,0.0199156
-1.339e-04,0.0199187
-1.338e-04,0.0198531
-1.336e-04,0.0200719
-1.334e-04,0.0201031
-1.333e-04,0.0200812
-1.331e-04,0.0201469
-1.330e-04,0.0201156
-1.328e-04,0.0201375
-1.326e-04,0.0203031
-1.325e-04,0.0201687
-1.323e-04,0.0203031
-1.322e-04,0.0202875
-1.320e-04,0.0201969
-1.318e-04,0.0202062
-1.317e-04,0.020175
-1.315e-04,0.0202156
-1.314e-04,0.0203156
-1.312e-04,0.0202594
-1.310e-04,0.0203781
-1.309e-04,0.0203531
-1.307e-04,0.0201812
-1.306e-04,0.0204562
-1.304e-04,0.0203781
-1.302e-04,0.0202906
-1.301e-04,0.0204
-1.299e-04,0.0202312
-1.298e-04,0.0204875
-1.296e-04,0.0203344
-1.294e-04,0.0202375
-1.293e-04,0.0203281
-1.291e-04,0.0203719
-1.290e-04,0.0203437
-1.288e-04,0.0204906
-1.286e-04,0.0204844
-1.285e-04,0.0205437
-1.283e-04,0.020475
-1.282e-04,0.0205312
-1.280e-04,0.020575
-1.278e-04,0.0205312
-1.277e-04,0.0204687
-1.275e-04,0.0203656
-1.274e-04,0.0204062
-1.272e-04,0.0201531
-1.270e-04,0.020325
-1.269e-04,0.0204375
-1.267e-04,0.0202187
-1.266e-04,0.0202969
-1.264e-04,0.0204812
-1.262e-04,0.0204594
-1.261e-04,0.0202781
-1.259e-04,0.0204937
-1.258e-04,0.0202437
-1.256e-04,0.02015
-1.254e-04,0.0203531
-1.253e-04,0.0202781
-1.251e-04,0.0201687
-1.250e-04,0.0202062
-1.248e-04,0.0203062
-1.246e-04,0.0202625
-1.245e-04,0.0202281
-1.243e-04,0.0201594
-1.242e-04,0.0200781
-1.240e-04,0.0201937
-1.238e-04,0.0201719
-1.237e-04,0.0202156
-1.235e-04,0.0201062
-1.234e-04,0.0199969
-1.232e-04,0.0201562
-1.230e-04,0.0201781
-1.229e-04,0.0200781
-1.227e-04,0.019975
-1.226e-04,0.019975
-1.224e-04,0.0202094
-1.222e-04,0.0201812
-1.221e-04,0.0198937
-1.219e-04,0.0200062
-1.218e-04,0.0198687
-1.216e-04,0.0198719
-1.214e-04,0.0198687
-1.213e-04,0.0199281
-1.211e-04,0.0199344
-1.210e-04,0.0198562
-1.208e-04,0.0198219
-1.206e-04,0.0196656
-1.205e-04,0.0196812
-1.203e-04,0.01965
-1.202e-04,0.0196625
-1.200e-04,0.0196406
-1.198e-04,0.0196875
-1.197e-04,0.0195812
-1.195e-04,0.0196312
-1.194e-04,0.0197062
-1.192e-04,0.0196375
-1.190e-04,0.0196406
-1.189e-04,0.0196437
-1.187e-04,0.0194812
-1.186e-04,0.0196187
-1.184e-04,0.0195687
-1.182e-04,0.0195625
-1.181e-04,0.0195781
-1.179e-04,0.0196281
-1.178e-04,0.0196687
-1.176e-04,0.0195719
-1.174e-04,0.0194781
-1.173e-04,0.0195344
-1.171e-04,0.0193969
-1.170e-04,0.0193781
-1.168e-04,0.0193625
-1.166e-04,0.0194781
-1.165e-04,0.0194531
-1.163e-04,0.0194719
-1.162e-04,0.019225
-1.160e-04,0.0193719
-1.158e-04,0.0191969
-1.157e-04,0.0192125
-1.155e-04,0.0191437
-1.154e-04,0.0190625
-1.152e-04,0.0192562
-1.150e-04,0.0191187
-1.149e-04,0.0191531
-1.147e-04,0.0191875
-1.146e-04,0.0191687
-1.144e-04,0.0191531
-1.142e-04,0.0192187
-1.141e-04,0.0191562
-1.139e-04,0.0192437
-1.138e-04,0.0189156
-1.136e-04,0.0189906
-1.134e-04,0.0191906
-1.133e-04,0.0191719
-1.131e-04,0.0189969
-1.130e-04,0.019225
-1.128e-04,0.0190812
-1.126e-04,0.0191437
-1.125e-04,0.0190562
-1.123e-04,0.019025
-1.122e-04,0.0190875
-1.120e-04,0.0190187
-1.118e-04,0.0188625
-1.117e-04,0.0189469
-1.115e-04,0.0189031
-1.114e-04,0.0188562
-1.112e-04,0.0187187
-1.110e-04,0.018875
-1.109e-04,0.0188281
-1.107e-04,0.0187156
-1.106e-04,0.0187781
-1.104e-04,0.01865
-1.102e-04,0.0187969
-1.101e-04,0.0187
-1.099e-04,0.018725
-1.098e-04,0.0188531
-1.096e-04,0.0186594
-1.094e-04,0.0187625
-1.093e-04,0.0187594
-1.091e-04,0.0186594
-1.090e-04,0.0184937
-1.088e-04,0.0184219
-1.086e-04,0.0185656
-1.085e-04,0.01855
-1.083e-04,0.0185781
-1.082e-04,0.0183875
-1.080e-04,0.018475
-1.078e-04,0.0184406
-1.077e-04,0.0183437
-1.075e-04,0.0184031
-1.074e-04,0.0185219
-1.072e-04,0.0184844
-1.070e-04,0.0185375
-1.069e-04,0.0186844
-1.067e-04,0.0184687
-1.066e-04,0.0184656
-1.064e-04,0.0183969
-1.062e-04,0.0184312
-1.061e-04,0.018525
-1.059e-04,0.0184594
-1.058e-04,0.0184312
-1.056e-04,0.0185125
-1.054e-04,0.0184219
-1.053e-04,0.0183719
-1.051e-04,0.018525
-1.050e-04,0.0183969
-1.048e-04,0.0183844
-1.046e-04,0.0185687
-1.045e-04,0.01855
-1.043e-04,0.0184469
-1.042e-04,0.0183281
-1.040e-04,0.0183031
-1.038e-04,0.0183031
-1.037e-04,0.0183906
-1.035e-04,0.0182562
-1.034e-04,0.0183844
-1.032e-04,0.0184219
-1.030e-04,0.0183125
-1.029e-04,0.0182969
-1.027e-04,0.0183812
-1.026e-04,0.0182656
-1.024e-04,0.0183594
-1.022e-04,0.0183219
-1.021e-04,0.0182531
-1.019e-04,0.0182969
-1.018e-04,0.0183031
-1.016e-04,0.0184656
-1.014e-04,0.0182594
-1.013e-04,0.0183156
-1.011e-04,0.0183031
-1.010e-04,0.0183969
-1.008e-04,0.0184406
-1.006e-04,0.0183031
-1.005e-04,0.0183656
-1.003e-04,0.0184
-1.002e-04,0.0183187
-1.000e-04,0.0184094
-9.984e-05,0.0183125
-9.968e-05,0.0183687
-9.952e-05,0.01845
-9.936e-05,0.0185156
-9.920e-05,0.0185344
-9.904e-05,0.0185031
-9.888e-05,0.0185187
-9.872e-05,0.0184312
-9.856e-05,0.0184906
-9.840e-05,0.0183969
-9.824e-05,0.0183031
-9.808e-05,0.0183625
-9.792e-05,0.0185875
-9.776e-05,0.0184062
-9.760e-05,0.0183062
-9.744e-05,0.0183312
-9.728e-05,0.0181875
-9.712e-05,0.0183719
-9.696e-05,0.0185
-9.680e-05,0.0182406
-9.664e-05,0.0184687
-9.648e-05,0.0183094
-9.632e-05,0.0184094
-9.616e-05,0.0181969
-9.600e-05,0.0182562
-9.584e-05,0.0184969
-9.568e-05,0.0183562
-9.552e-05,0.0184469
-9.536e-05,0.0183156
-9.520e-05,0.0183469
-9.504e-05,0.018425
-9.488e-05,0.0183344
-9.472e-05,0.0183812
-9.456e-05,0.0183531
-9.440e-05,0.0183031
-9.424e-05,0.0183094
-9.408e-05,0.0181906
-9.392e-05,0.018275
-9.376e-05,0.0182562
-9.360e-05,0.0182375
-9.344e-05,0.0183187
-9.328e-05,0.0182562
-9.312e-05,0.0182812
-9.296e-05,0.0182625
-9.280e-05,0.0180969
-9.264e-05,0.0180969
-9.248e-05,0.0182031
-9.232e-05,0.0182219
-9.216e-05,0.0181469
-9.200e-05,0.0181781
-9.184e-05,0.0181281
-9.168e-05,0.01815
-9.152e-05,0.0180594
-9.136e-05,0.0180156
-9.120e-05,0.0181719
-9.104e-05,0.0183687
-9.088e-05,0.0181781
-9.072e-05,0.01805
-9.056e-05,0.0181031
-9.040e-05,0.0181469
-9.024e-05,0.0179906
-9.008e-05,0.018025
-8.992e-05,0.0181031
-8.976e-05,0.0179031
-8.960e-05,0.0180156
-8.944e-05,0.018075
-8.928e-05,0.0180375
-8.912e-05,0.0179719
-8.896e-05,0.0179844
-8.880e-05,0.0179031
-8.864e-05,0.0178812
-8.848e-05,0.0181031
-8.832e-05,0.0180437
-8.816e-05,0.0181375
-8.800e-05,0.0179281
-8.784e-05,0.017875
-8.768e-05,0.0179969
-8.752e-05,0.0180875
-8.736e-05,0.0179687
-8.720e-05,0.0179281
-8.704e-05,0.0179469
-8.688e-05,0.0179281
-8.672e-05,0.017775
-8.656e-05,0.0181281
-8.640e-05,0.0180281
-8.624e-05,0.01795
-8.608e-05,0.018075
-8.592e-05,0.0179469
-8.576e-05,0.0181875
-8.560e-05,0.0181187
-8.544e-05,0.0179625
-8.528e-05,0.0178875
-8.512e-05,0.0178844
-8.496e-05,0.0180187
-8.480e-05,0.017975
-8.464e-05,0.0181156
-8.448e-05,0.0179594
-8.432e-05,0.0179812
-8.416e-05,0.0179937
-8.400e-05,0.0178781
-8.384e-05,0.0180687
-8.368e-05,0.017975
-8.352e-05,0.018025
-8.336e-05,0.0180406
-8.320e-05,0.0179281
-8.304e-05,0.0179437
-8.288e-05,0.0177875
-8.272e-05,0.0178812
-8.256e-05,0.0179656
-8.240e-05,0.0179625
-8.224e-05,0.0181187
-8.208e-05,0.0179719
-8.192e-05,0.0180219
-8.176e-05,0.0180406
-8.160e-05,0.0180156
-8.144e-05,0.017975
-8.128e-05,0.0178875
-8.112e-05,0.0179875
-8.096e-05,0.0178844
-8.080e-05,0.0178625
-8.064e-05,0.0178
-8.048e-05,0.0179969
-8.032e-05,0.0178437
-8.016e-05,0.0178406
-8.000e-05,0.0178594
-7.984e-05,0.0176625
-7.968e-05,0.0176625
-7.952e-05,0.0177531
-7.936e-05,0.0178094
-7.920e-05,0.0176125
-7.904e-05,0.0178094
-7.888e-05,0.017825
-7.872e-05,0.0177812
-7.856e-05,0.0177531
-7.840e-05,0.0176906
-7.824e-05,0.0176094
-7.808e-05,0.017775
-7.792e-05,0.0178062
-7.776e-05,0.0176781
-7.760e-05,0.0175469
-7.744e-05,0.0176781
-7.728e-05,0.0178062
-7.712e-05,0.0177656
-7.696e-05,0.0177406
-7.680e-05,0.0177031
-7.664e-05,0.0177125
-7.648e-05,0.0177469
-7.632e-05,0.0177531
-7.616e-05,0.0175781
-7.600e-05,0.0175875
-7.584e-05,0.0175781
-7.568e-05,0.0176125
-7.552e-05,0.0177906
-7.536e-05,0.0177594
-7.520e-05,0.0176125
-7.504e-05,0.0177656
-7.488e-05,0.0177969
-7.472e-05,0.0176812
-7.456e-05,0.0176812
-7.440e-05,0.0175594
-7.424e-05,0.0176437
-7.408e-05,0.0176906
-7.392e-05,0.0176281
-7.376e-05,0.0175719
-7.360e-05,0.0176187
-7.344e-05,0.0175344
-7.328e-05,0.0177
-7.312e-05,0.0177906
-7.296e-05,0.0177531
-7.280e-05,0.0176687
-7.264e-05,0.0175
-7.248e-05,0.0176562
-7.232e-05,0.0175
-7.216e-05,0.0175031
-7.200e-05,0.0176062
-7.184e-05,0.017725
-7.168e-05,0.0176844
-7.152e-05,0.0176844
-7.136e-05,0.0175656
-7.120e-05,0.0176687
-7.104e-05,0.0177094
-7.088e-05,0.0174406
-7.072e-05,0.0175
-7.056e-05,0.01755
-7.040e-05,0.0175687
-7.024e-05,0.0175406
-7.008e-05,0.0176156
-6.992e-05,0.01765
-6.976e-05,0.0176844
-6.960e-05,0.0176531
-6.944e-05,0.0176406
-6.928e-05,0.0176406
-6.912e-05,0.0175031
-6.896e-05,0.0174344
-6.880e-05,0.0174156
-6.864e-05,0.0174156
-6.848e-05,0.0175687
-6.832e-05,0.0174187
-6.816e-05,0.0175094
-6.800e-05,0.0175969
-6.784e-05,0.0175312
-6.768e-05,0.0174062
-6.752e-05,0.0175562
-6.736e-05,0.0176031
-6.720e-05,0.0174594
-6.704e-05,0.0175906
-6.688e-05,0.0175562
-6.672e-05,0.0176156
-6.656e-05,0.0174656
-6.640e-05,0.0175062
-6.624e-05,0.0176187
-6.608e-05,0.0174094
-6.592e-05,0.0174844
-6.576e-05,0.0175344
-6.560e-05,0.0172812
-6.544e-05,0.0173437
-6.528e-05,0.0174562
-6.512e-05,0.0173844
-6.496e-05,0.0174906
-6.480e-05,0.0175031
-6.464e-05,0.0173375
-6.448e-05,0.0174219
-6.432e-05,0.0173594
-6.416e-05,0.0174469
-6.400e-05,0.0175
-6.384e-05,0.0175031
-6.368e-05,0.0175594
-6.352e-05,0.0175344
-6.336e-05,0.0175031
-6.320e-05,0.017575
-6.304e-05,0.0175031
-6.288e-05,0.0174531
-6.272e-05,0.0176062
-6.256e-05,0.0175219
-6.240e-05,0.0176156
-6.224e-05,0.0176156
-6.208e-05,0.0176562
-6.192e-05,0.0176344
-6.176e-05,0.0176406
-6.160e-05,0.0175406
-6.144e-05,0.0177187
-6.128e-05,0.0175562
-6.112e-05,0.0175719
-6.096e-05,0.0176312
-6.080e-05,0.0174625
-6.064e-05,0.0174219
-6.048e-05,0.0175594
-6.032e-05,0.0176375
-6.016e-05,0.0177969
-6.000e-05,0.0177281
-5.984e-05,0.0176687
-5.968e-05,0.0174437
-5.952e-05,0.0175687
-5.936e-05,0.0176375
-5.920e-05,0.0176187
-5.904e-05,0.0176219
-5.888e-05,0.0176594
-5.872e-05,0.01765
-5.856e-05,0.0176875
-5.840e-05,0.0177562
-5.824e-05,0.0176844
-5.808e-05,0.0176
-5.792e-05,0.0177469
-5.776e-05,0.0177625
-5.760e-05,0.0175594
-5.744e-05,0.0176594
-5.728e-05,0.0176344
-5.712e-05,0.0176906
-5.696e-05,0.0177094
-5.680e-05,0.0177406
-5.664e-05,0.0178812
-5.648e-05,0.0177937
-5.632e-05,0.0177531
-5.616e-05,0.0178906
-5.600e-05,0.0177062
-5.584e-05,0.0177656
-5.568e-05,0.0176656
-5.552e-05,0.0176531
-5.536e-05,0.0177437
-5.520e-05,0.0177687
-5.504e-05,0.0178469
-5.488e-05,0.0177781
-5.472e-05,0.0177719
-5.456e-05,0.0180062
-5.440e-05,0.0179375
-5.424e-05,0.0176969
-5.408e-05,0.0178125
-5.392e-05,0.0177656
-5.376e-05,0.0176969
-5.360e-05,0.0178062
-5.344e-05,0.0177969
-5.328e-05,0.0180125
-5.312e-05,0.017825
-5.296e-05,0.0175937
-5.280e-05,0.0177687
-5.264e-05,0.017625
-5.248e-05,0.0176594
-5.232e-05,0.0175906
-5.216e-05,0.0176687
-5.200e-05,0.0175937
-5.184e-05,0.0175406
-5.168e-05,0.0175094
-5.152e-05,0.0174656
-5.136e-05,0.0175594
-5.120e-05,0.0174531
-5.104e-05,0.0175406
-5.088e-05,0.0175
-5.072e-05,0.0173469
-5.056e-05,0.0175031
-5.040e-05,0.0173781
-5.024e-05,0.0173594
-5.008e-05,0.0174656
-4.992e-05,0.0173781
-4.976e-05,0.0173281
-4.960e-05,0.0173969
-4.944e-05,0.0173219
-4.928e-05,0.0171312
-4.912e-05,0.017325
-4.896e-05,0.0171531
-4.880e-05,0.0171406
-4.864e-05,0.0171344
-4.848e-05,0.0170187
-4.832e-05,0.0169969
-4.816e-05,0.0169719
-4.800e-05,0.0166594
-4.784e-05,0.0168594
-4.768e-05,0.0168844
-4.752e-05,0.0166719
-4.736e-05,0.0166656
-4.720e-05,0.016525
-4.704e-05,0.0165406
-4.688e-05,0.0164937
-4.672e-05,0.0164594
-4.656e-05,0.0164594
-4.640e-05,0.0163187
-4.624e-05,0.0164312
-4.608e-05,0.0162875
-4.592e-05,0.0162687
-4.576e-05,0.0161594
-4.560e-05,0.0161094
-4.544e-05,0.0159094
-4.528e-05,0.016
-4.512e-05,0.0158906
-4.496e-05,0.0158219
-4.480e-05,0.0156875
-4.464e-05,0.0155562
-4.448e-05,0.0155094
-4.432e-05,0.0154094
-4.416e-05,0.0156375
-4.400e-05,0.0155156
-4.384e-05,0.0154
-4.368e-05,0.0153656
-4.352e-05,0.015225
-4.336e-05,0.0152156
-4.320e-05,0.0151781
-4.304e-05,0.0150094
-4.288e-05,0.01505
-4.272e-05,0.0149
-4.256e-05,0.0149812
-4.240e-05,0.0148219
-4.224e-05,0.0146875
-4.208e-05,0.0145656
-4.192e-05,0.0146594
-4.176e-05,0.0144687
-4.160e-05,0.0145406
-4.144e-05,0.0143969
-4.128e-05,0.0142594
-4.112e-05,0.0142625
-4.096e-05,0.014075
-4.080e-05,0.0142625
-4.064e-05,0.0141187
-4.048e-05,0.0141344
-4.032e-05,0.0140469
-4.016e-05,0.0139219
-4.000e-05,0.013925
-3.984e-05,0.0138656
-3.968e-05,0.0138094
-3.952e-05,0.0137156
-3.936e-05,0.0137531
-3.920e-05,0.0136406
-3.904e-05,0.0136844
-3.888e-05,0.0136156
-3.872e-05,0.0135937
-3.856e-05,0.0134187
-3.840e-05,0.0135094
-3.824e-05,0.0135219
-3.808e-05,0.0133906
-3.792e-05,0.0132812
-3.776e-05,0.013225
-3.760e-05,0.0130375
-3.744e-05,0.013325
-3.728e-05,0.0131062
-3.712e-05,0.013175
-3.696e-05,0.01315
-3.680e-05,0.01295
-3.664e-05,0.0131344
-3.648e-05,0.0130937
-3.632e-05,0.0130656
-3.616e-05,0.0129437
-3.600e-05,0.012725
-3.584e-05,0.0128969
-3.568e-05,0.0129375
-3.552e-05,0.0128469
-3.536e-05,0.0127875
-3.520e-05,0.0128656
-3.504e-05,0.0128625
-3.488e-05,0.0127531
-3.472e-05,0.0126687
-3.456e-05,0.012675
-3.440e-05,0.0125719
-3.424e-05,0.012475
-3.408e-05,0.0125094
-3.392e-05,0.0124906
-3.376e-05,0.0125125
-3.360e-05,0.0124531
-3.344e-05,0.0122969
-3.328e-05,0.0124781
-3.312e-05,0.0123437
-3.296e-05,0.0125187
-3.280e-05,0.0125375
-3.264e-05,0.0122656
-3.248e-05,0.0125375
-3.232e-05,0.0124125
-3.216e-05,0.0123344
-3.200e-05,0.0123469
-3.184e-05,0.0121344
-3.168e-05,0.0123375
-3.152e-05,0.0122656
-3.136e-05,0.0122156
-3.120e-05,0.0123187
-3.104e-05,0.0122687
-3.088e-05,0.01235
-3.072e-05,0.0123656
-3.056e-05,0.0121781
-3.040e-05,0.0125531
-3.024e-05,0.0122156
-3.008e-05,0.0123969
-2.992e-05,0.01225
-2.976e-05,0.012175
-2.960e-05,0.0123094
-2.944e-05,0.0122094
-2.928e-05,0.0120406
-2.912e-05,0.0122187
-2.896e-05,0.0122125
-2.880e-05,0.0123844
-2.864e-05,0.0124219
-2.848e-05,0.0122656
-2.832e-05,0.0122219
-2.816e-05,0.01225
-2.800e-05,0.0122125
-2.784e-05,0.012175
-2.768e-05,0.0121562
-2.752e-05,0.0123219
-2.736e-05,0.0122375
-2.720e-05,0.0122937
-2.704e-05,0.0122469
-2.688e-05,0.0122781
-2.672e-05,0.012425
-2.656e-05,0.0122094
-2.640e-05,0.0123125
-2.624e-05,0.0123094
-2.608e-05,0.012275
-2.592e-05,0.0120906
-2.576e-05,0.012425
-2.560e-05,0.0122031
-2.544e-05,0.0122094
-2.528e-05,0.0122312
-2.512e-05,0.0122625
-2.496e-05,0.0123094
-2.480e-05,0.0122031
-2.464e-05,0.0122406
-2.448e-05,0.0121094
-2.432e-05,0.0122469
-2.416e-05,0.0123625
-2.400e-05,0.0123531
-2.384e-05,0.0123875
-2.368e-05,0.0124844
-2.352e-05,0.0123187
-2.336e-05,0.0122906
-2.320e-05,0.0123437
-2.304e-05,0.0123
-2.288e-05,0.0123469
-2.272e-05,0.0122844
-2.256e-05,0.0120437
-2.240e-05,0.0122937
-2.224e-05,0.0121406
-2.208e-05,0.0123531
-2.192e-05,0.0122312
-2.176e-05,0.012375
-2.160e-05,0.0123781
-2.144e-05,0.0122437
-2.128e-05,0.0124406
-2.112e-05,0.0124219
-2.096e-05,0.0123969
-2.080e-05,0.0124312
-2.064e-05,0.0123281
-2.048e-05,0.0124812
-2.032e-05,0.0125531
-2.016e-05,0.0124156
-2.000e-05,0.0123594
-1.984e-05,0.0124062
-1.968e-05,0.012425
-1.952e-05,0.0124906
-1.936e-05,0.0124781
-1.920e-05,0.012475
-1.904e-05,0.0124406
-1.888e-05,0.0124094
-1.872e-05,0.0124687
-1.856e-05,0.0122656
-1.840e-05,0.0124906
-1.824e-05,0.0123875
-1.808e-05,0.0125125
-1.792e-05,0.0125906
-1.776e-05,0.0123312
-1.760e-05,0.0122781
-1.744e-05,0.0123312
-1.728e-05,0.0123094
-1.712e-05,0.0124562
-1.696e-05,0.0124437
-1.680e-05,0.0124094
-1.664e-05,0.0124156
-1.648e-05,0.0124344
-1.632e-05,0.0124094
-1.616e-05,0.0123875
-1.600e-05,0.0123625
-1.584e-05,0.0124531
-1.568e-05,0.0124937
-1.552e-05,0.0121875
-1.536e-05,0.0124031
-1.520e-05,0.0123469
-1.504e-05,0.0125
-1.488e-05,0.0124094
-1.472e-05,0.0124219
-1.456e-05,0.0123281
-1.440e-05,0.0124594
-1.424e-05,0.0122844
-1.408e-05,0.0123906
-1.392e-05,0.0122812
-1.376e-05,0.0123094
-1.360e-05,0.0122312
-1.344e-05,0.0122812
-1.328e-05,0.0125344
-1.312e-05,0.0123531
-1.296e-05,0.01235
-1.280e-05,0.0123531
-1.264e-05,0.0123156
-1.248e-05,0.012375
-1.232e-05,0.0124187
-1.216e-05,0.0122469
-1.200e-05,0.0124094
-1.184e-05,0.0123719
-1.168e-05,0.0124375
-1.152e-05,0.0123062
-1.136e-05,0.0123906
-1.120e-05,0.0123062
-1.104e-05,0.0124469
-1.088e-05,0.0124656
-1.072e-05,0.0123312
-1.056e-05,0.0124531
-1.040e-05,0.0125344
-1.024e-05,0.0125781
-1.008e-05,0.012525
-9.920e-06,0.0125469
-9.760e-06,0.012425
-9.600e-06,0.0123406
-9.440e-06,0.0122687
-9.280e-06,0.0122719
-9.120e-06,0.0122031
-8.960e-06,0.0123406
-8.800e-06,0.0122531
-8.640e-06,0.0122437
-8.480e-06,0.0122531
-8.320e-06,0.0123719
-8.160e-06,0.0122781
-8.000e-06,0.012275
-7.840e-06,0.0123062
-7.680e-06,0.0122344
-7.520e-06,0.0122312
-7.360e-06,0.0122625
-7.200e-06,0.0123906
-7.040e-06,0.0122125
-6.880e-06,0.0121719
-6.720e-06,0.0122687
-6.560e-06,0.0121406
-6.400e-06,0.0123125
-6.240e-06,0.0123719
-6.080e-06,0.01245
-5.920e-06,0.0122969
-5.760e-06,0.0122375
-5.600e-06,0.0123094
-5.440e-06,0.0121875
-5.280e-06,0.012275
-5.120e-06,0.0122469
-4.960e-06,0.0121844
-4.800e-06,0.0122156
-4.640e-06,0.0121875
-4.480e-06,0.0123312
-4.320e-06,0.0122812
-4.160e-06,0.0122906
-4.000e-06,0.0123
-3.840e-06,0.0122062
-3.680e-06,0.0122094
-3.520e-06,0.0120594
-3.360e-06,0.012275
-3.200e-06,0.0121812
-3.040e-06,0.0122906
-2.880e-06,0.0121469
-2.720e-06,0.0122625
-2.560e-06,0.0121937
-2.400e-06,0.0123781
-2.240e-06,0.0121875
-2.080e-06,0.012375
-1.920e-06,0.0122219
-1.760e-06,0.0123625
-1.600e-06,0.0122344
-1.440e-06,0.012325
-1.280e-06,0.0124094
-1.120e-06,0.0124
-9.600e-07,0.0122844
-8.000e-07,0.01225
-6.400e-07,0.0123062
-4.800e-07,0.0122344
-3.200e-07,0.0132937
-1.600e-07,0.0125406
-1.439e-18,0.0121875
1.600e-07,0.012025
3.200e-07,0.0118406
4.800e-07,0.0116281
6.400e-07,0.0114094
8.000e-07,0.0113969
9.600e-07,0.01115
1.120e-06,0.0113281
1.280e-06,0.0113812
1.440e-06,0.0114156
1.600e-06,0.01135
1.760e-06,0.011625
1.920e-06,0.0114406
2.080e-06,0.0115281
2.240e-06,0.0115875
2.400e-06,0.0115312
2.560e-06,0.0114375
2.720e-06,0.0115125
2.880e-06,0.0115937
3.040e-06,0.0115469
3.200e-06,0.0115437
3.360e-06,0.0115281
3.520e-06,0.0115375
3.680e-06,0.0116125
3.840e-06,0.0114719
4.000e-06,0.0116187
4.160e-06,0.0116125
4.320e-06,0.011375
4.480e-06,0.0114219
4.640e-06,0.0115812
4.800e-06,0.0116437
4.960e-06,0.0114469
5.120e-06,0.0115937
5.280e-06,0.0116625
5.440e-06,0.0114937
5.600e-06,0.0115219
5.760e-06,0.0115062
5.920e-06,0.01155
6.080e-06,0.0114719
6.240e-06,0.0113969
6.400e-06,0.0113906
6.560e-06,0.0114219
6.720e-06,0.01145
6.880e-06,0.0113656
7.040e-06,0.0114156
7.200e-06,0.0113344
7.360e-06,0.0113562
7.520e-06,0.0112875
7.680e-06,0.0113156
7.840e-06,0.0113594
8.000e-06,0.0113906
8.160e-06,0.0114781
8.320e-06,0.0111156
8.480e-06,0.0111844
8.640e-06,0.01125
8.800e-06,0.01115
8.960e-06,0.0110094
9.120e-06,0.0109437
9.280e-06,0.0108281
9.440e-06,0.0106469
9.600e-06,0.0105656
9.760e-06,0.0105594
9.920e-06,0.0105375
1.008e-05,0.0102187
1.024e-05,0.0100875
1.040e-05,0.00970937
1.056e-05,0.00966562
1.072e-05,0.00945625
1.088e-05,0.009225
1.104e-05,0.00895312
1.120e-05,0.008725
1.136e-05,0.00829687
1.152e-05,0.00819687
1.168e-05,0.00793125
1.184e-05,0.007475
1.200e-05,0.0071875
1.216e-05,0.00691562
1.232e-05,0.00634687
1.248e-05,0.00601562
1.264e-05,0.00559062
1.280e-05,0.00526562
1.296e-05,0.00488437
1.312e-05,0.00440625
1.328e-05,0.00399375
1.344e-05,0.00344687
1.360e-05,0.003025
1.376e-05,0.00279687
1.392e-05,0.00235937
1.408e-05,0.00184687
1.424e-05,0.00138437
1.440e-05,0.00117187
1.456e-05,0.000653125
1.472e-05,0.0002125
1.488e-05,-0.000115625
1.504e-05,-0.0005
1.520e-05,-0.00063125
1.536e-05,-0.0011625
1.552e-05,-0.0014625
1.568e-05,-0.00156562
1.584e-05,-0.00193125
1.600e-05,-0.00229375
1.616e-05,-0.00259062
1.632e-05,-0.00264062
1.648e-05,-0.0029
1.664e-05,-0.00289062
1.680e-05,-0.00312187
1.696e-05,-0.00329375
1.712e-05,-0.00345937
1.728e-05,-0.00340937
1.744e-05,-0.00346562
1.760e-05,-0.00364062
1.776e-05,-0.00350312
1.792e-05,-0.00339062
1.808e-05,-0.00318125
1.824e-05,-0.0032875
1.840e-05,-0.00309375
1.856e-05,-0.00299687
1.872e-05,-0.00285937
1.888e-05,-0.00270312
1.904e-05,-0.00259062
1.920e-05,-0.00230937
1.936e-05,-0.00194062
1.952e-05,-0.00183125
1.968e-05,-0.00147812
1.984e-05,-0.00101562
2.000e-05,-0.000846875
2.016e-05,-0.000503125
2.032e-05,-2.1875e-05
2.048e-05,0.00028125
2.064e-05,0.000759375
2.080e-05,0.000975
2.096e-05,0.0013625
2.112e-05,0.0018875
2.128e-05,0.00237812
2.144e-05,0.00274062
2.160e-05,0.00309687
2.176e-05,0.00350937
2.192e-05,0.0039625
2.208e-05,0.0043625
2.224e-05,0.004875
2.240e-05,0.00522187
2.256e-05,0.00526562
2.272e-05,0.00580625
2.288e-05,0.00625625
2.304e-05,0.00648125
2.320e-05,0.00694375
2.336e-05,0.00722187
2.352e-05,0.007475
2.368e-05,0.00780937
2.384e-05,0.0080625
2.400e-05,0.00819687
2.416e-05,0.008525
2.432e-05,0.00875
2.448e-05,0.0090625
2.464e-05,0.00926875
2.480e-05,0.00945312
2.496e-05,0.00973125
2.512e-05,0.00988125
2.528e-05,0.0100969
2.544e-05,0.0101594
2.560e-05,0.0103406
2.576e-05,0.0104781
2.592e-05,0.0104125
2.608e-05,0.0106594
2.624e-05,0.0109156
2.640e-05,0.0108156
2.656e-05,0.0110187
2.672e-05,0.011125
2.688e-05,0.0111219
2.704e-05,0.0113125
2.720e-05,0.0114
2.736e-05,0.0115969
2.752e-05,0.0114937
2.768e-05,0.0115687
2.784e-05,0.011575
2.800e-05,0.0115281
2.816e-05,0.0117844
2.832e-05,0.0116906
2.848e-05,0.0118156
2.864e-05,0.0118125
2.880e-05,0.0121969
2.896e-05,0.0121281
2.912e-05,0.0119094
2.928e-05,0.0118937
2.944e-05,0.0120406
2.960e-05,0.0121094
2.976e-05,0.0119781
2.992e-05,0.01195
3.008e-05,0.0120406
3.024e-05,0.0117812
3.040e-05,0.0120687
3.056e-05,0.012125
3.072e-05,0.0121687
3.088e-05,0.0122125
3.104e-05,0.0122219
3.120e-05,0.0121687
3.136e-05,0.0120719
3.152e-05,0.0120937
3.168e-05,0.0119719
3.184e-05,0.0121469
3.200e-05,0.0119781
3.216e-05,0.0120875
3.232e-05,0.0119937
3.248e-05,0.0121344
3.264e-05,0.0118562
3.280e-05,0.012
3.296e-05,0.0119156
3.312e-05,0.0120875
3.328e-05,0.0120562
3.344e-05,0.011975
3.360e-05,0.0118594
3.376e-05,0.01195
3.392e-05,0.0120125
3.408e-05,0.0119375
3.424e-05,0.0119969
3.440e-05,0.0121625
3.456e-05,0.0121687
3.472e-05,0.0120281
3.488e-05,0.0120937
3.504e-05,0.0119187
3.520e-05,0.0120312
3.536e-05,0.0120469
3.552e-05,0.0119562
3.568e-05,0.0119031
3.584e-05,0.0118094
3.600e-05,0.0118906
3.616e-05,0.0119844
3.632e-05,0.0121625
3.648e-05,0.01195
3.664e-05,0.0120562
3.680e-05,0.0120156
3.696e-05,0.0118656
3.712e-05,0.011975
3.728e-05,0.0118594
3.744e-05,0.0117656
3.760e-05,0.0116687
3.776e-05,0.0119781
3.792e-05,0.0119531
3.808e-05,0.0118594
3.824e-05,0.0118875
3.840e-05,0.01195
3.856e-05,0.012
3.872e-05,0.0120969
3.888e-05,0.0118875
3.904e-05,0.0119781
3.920e-05,0.0119594
3.936e-05,0.011975
3.952e-05,0.0119375
3.968e-05,0.0118437
3.984e-05,0.0118094
4.000e-05,0.0120469
4.016e-05,0.0121687
4.032e-05,0.0121187
4.048e-05,0.0121875
4.064e-05,0.011975
4.080e-05,0.0118062
4.096e-05,0.0118094
4.112e-05,0.0118937
4.128e-05,0.0119531
4.144e-05,0.0117687
4.160e-05,0.0121062
4.176e-05,0.0119406
4.192e-05,0.012025
4.208e-05,0.01195
4.224e-05,0.0119625
4.240e-05,0.0119625
4.256e-05,0.0118594
4.272e-05,0.0117312
4.288e-05,0.0117344
4.304e-05,0.011775
4.320e-05,0.011775
4.336e-05,0.0118594
4.352e-05,0.0119719
4.368e-05,0.0118969
4.384e-05,0.0118625
4.400e-05,0.0118719
4.416e-05,0.01195
4.432e-05,0.0118062
4.448e-05,0.0117281
4.464e-05,0.01195
4.480e-05,0.0118531
4.496e-05,0.0120375
4.512e-05,0.01215
4.528e-05,0.0120875
4.544e-05,0.0120719
4.560e-05,0.0120406
4.576e-05,0.0118937
4.592e-05,0.0119031
4.608e-05,0.0118125
4.624e-05,0.0118562
4.640e-05,0.0118656
4.656e-05,0.0118344
4.672e-05,0.012
4.688e-05,0.0119844
4.704e-05,0.0119344
4.720e-05,0.0121344
4.736e-05,0.0119687
4.752e-05,0.0119219
4.768e-05,0.0119625
4.784e-05,0.0119469
4.800e-05,0.0119937
4.816e-05,0.0119437
4.832e-05,0.011925
4.848e-05,0.0118687
4.864e-05,0.0120375
4.880e-05,0.0122594
4.896e-05,0.0121437
4.912e-05,0.0120531
4.928e-05,0.011825
4.944e-05,0.0118625
4.960e-05,0.0119656
4.976e-05,0.0118844
4.992e-05,0.0121062
5.008e-05,0.0119125
5.024e-05,0.011975
5.040e-05,0.0119156
5.056e-05,0.0119469
5.072e-05,0.012075
5.088e-05,0.01195
5.104e-05,0.0119312
5.120e-05,0.0117187
5.136e-05,0.0118531
5.152e-05,0.0117187
5.168e-05,0.0120187
5.184e-05,0.0118594
5.200e-05,0.0118781
5.216e-05,0.0119344
5.232e-05,0.0118656
5.248e-05,0.0117656
5.264e-05,0.0118781
5.280e-05,0.0118844
5.296e-05,0.0119812
5.312e-05,0.0119969
5.328e-05,0.0119875
5.344e-05,0.0120562
5.360e-05,0.0119344
5.376e-05,0.0119531
5.392e-05,0.011975
5.408e-05,0.0118156
5.424e-05,0.0118156
5.440e-05,0.011725
5.456e-05,0.0118719
5.472e-05,0.0118656
5.488e-05,0.0117687
5.504e-05,0.0118
5.520e-05,0.0119219
5.536e-05,0.0119031
5.552e-05,0.0118594
5.568e-05,0.0118406
5.584e-05,0.0118594
5.600e-05,0.0117562
5.616e-05,0.011775
5.632e-05,0.0119031
5.648e-05,0.0118687
5.664e-05,0.0118281
5.680e-05,0.0118312
5.696e-05,0.0117969
5.712e-05,0.0119937
5.728e-05,0.012
5.744e-05,0.0119281
5.760e-05,0.0118906
5.776e-05,0.0118156
5.792e-05,0.0119344
5.808e-05,0.0118
5.824e-05,0.0117656
5.840e-05,0.0118594
5.856e-05,0.0117906
5.872e-05,0.01195
5.888e-05,0.0118594
5.904e-05,0.011825
5.920e-05,0.01195
5.936e-05,0.0117906
5.952e-05,0.0119
5.968e-05,0.0119531
5.984e-05,0.0119625
6.000e-05,0.0122406
6.016e-05,0.0120375
6.032e-05,0.0118625
6.048e-05,0.0119719
6.064e-05,0.0121031
6.080e-05,0.0119594
6.096e-05,0.0119719
6.112e-05,0.0119031
6.128e-05,0.0119375
6.144e-05,0.0119312
6.160e-05,0.0118969
6.176e-05,0.0120594
6.192e-05,0.0121094
6.208e-05,0.0121312
6.224e-05,0.011925
6.240e-05,0.0120031
6.256e-05,0.0121156
6.272e-05,0.0119687
6.288e-05,0.0119062
6.304e-05,0.0118594
6.320e-05,0.0117562
6.336e-05,0.0117969
6.352e-05,0.0120375
6.368e-05,0.0120094
6.384e-05,0.0120531
6.400e-05,0.0119875
6.416e-05,0.0118719
6.432e-05,0.011975
6.448e-05,0.0117812
6.464e-05,0.0119437
6.480e-05,0.011925
6.496e-05,0.012075
6.512e-05,0.0119969
6.528e-05,0.0118094
6.544e-05,0.0119125
6.560e-05,0.011925
6.576e-05,0.011775
6.592e-05,0.01185
6.608e-05,0.0119094
6.624e-05,0.0118344
6.640e-05,0.0118437
6.656e-05,0.0116687
6.672e-05,0.0119812
6.688e-05,0.0118562
6.704e-05,0.0117687
6.720e-05,0.0119094
6.736e-05,0.011725
6.752e-05,0.01185
6.768e-05,0.0118562
6.784e-05,0.0117687
6.800e-05,0.0119531
6.816e-05,0.0118844
6.832e-05,0.0119531
6.848e-05,0.0119406
6.864e-05,0.0117375
6.880e-05,0.0117906
6.896e-05,0.011775
6.912e-05,0.0120344
6.928e-05,0.0121062
6.944e-05,0.0119469
6.960e-05,0.0119937
6.976e-05,0.011975
6.992e-05,0.0119437
7.008e-05,0.01205
7.024e-05,0.0118594
7.040e-05,0.0118687
7.056e-05,0.0119594
7.072e-05,0.0118937
7.088e-05,0.0119594
7.104e-05,0.0117812
7.120e-05,0.0118219
7.136e-05,0.0119031
7.152e-05,0.011975
7.168e-05,0.0120437
7.184e-05,0.0119812
7.200e-05,0.01185
7.216e-05,0.0119344
7.232e-05,0.0116781
7.248e-05,0.0118594
7.264e-05,0.0120594
7.280e-05,0.0119031
7.296e-05,0.01215
7.312e-05,0.0118594
7.328e-05,0.0119437
7.344e-05,0.0119437
7.360e-05,0.0119937
7.376e-05,0.0120875
7.392e-05,0.0121125
7.408e-05,0.0118
7.424e-05,0.0120594
7.440e-05,0.0118406
7.456e-05,0.0118594
7.472e-05,0.0119344
7.488e-05,0.0119312
7.504e-05,0.0120094
7.520e-05,0.0119937
7.536e-05,0.0119437
7.552e-05,0.0120375
7.568e-05,0.0120781
7.584e-05,0.0120406
7.600e-05,0.0120625
7.616e-05,0.0118656
7.632e-05,0.0119437
7.648e-05,0.0118781
7.664e-05,0.0118812
7.680e-05,0.0119687
7.696e-05,0.0120219
7.712e-05,0.0117531
7.728e-05,0.0118719
7.744e-05,0.0118812
7.760e-05,0.0120094
7.776e-05,0.0119187
7.792e-05,0.0119969
7.808e-05,0.0120281
7.824e-05,0.0119812
7.840e-05,0.0119062
7.856e-05,0.0121062
7.872e-05,0.011925
7.888e-05,0.0117531
7.904e-05,0.0119406
7.920e-05,0.0120937
7.936e-05,0.0120656
7.952e-05,0.0120906
7.968e-05,0.0120687
7.984e-05,0.0120875
8.000e-05,0.0119469
8.016e-05,0.0121406
8.032e-05,0.0120406
8.048e-05,0.0119812
8.064e-05,0.0118312
8.080e-05,0.0117406
8.096e-05,0.0118312
8.112e-05,0.0118062
8.128e-05,0.0118594
8.144e-05,0.0118125
8.160e-05,0.0120469
8.176e-05,0.01215
8.192e-05,0.011875
8.208e-05,0.0119937
8.224e-05,0.0119562
8.240e-05,0.0119062
8.256e-05,0.01185
8.272e-05,0.0116687
8.288e-05,0.0118406
8.304e-05,0.0119562
8.320e-05,0.0119437
8.336e-05,0.0118656
8.352e-05,0.0119094
8.368e-05,0.0118719
8.384e-05,0.0119562
8.400e-05,0.0120781
8.416e-05,0.0120437
8.432e-05,0.0118906
8.448e-05,0.0119
8.464e-05,0.0117844
8.480e-05,0.0118062
8.496e-05,0.0119156
8.512e-05,0.0118625
8.528e-05,0.0118719
8.544e-05,0.0120437
8.560e-05,0.0119594
8.576e-05,0.0119531
8.592e-05,0.0120031
8.608e-05,0.0118312
8.624e-05,0.0118687
8.640e-05,0.0118625
8.656e-05,0.0117969
8.672e-05,0.0118625
8.688e-05,0.0119187
8.704e-05,0.0118687
8.720e-05,0.0119312
8.736e-05,0.0120437
8.752e-05,0.0120031
8.768e-05,0.0119219
8.784e-05,0.0119687
8.800e-05,0.0120687
8.816e-05,0.0120344
8.832e-05,0.0120437
8.848e-05,0.0119031
8.864e-05,0.0119156
8.880e-05,0.0121156
8.896e-05,0.011925
8.912e-05,0.0119562
8.928e-05,0.012
8.944e-05,0.0118812
8.960e-05,0.0120094
8.976e-05,0.0119812
8.992e-05,0.0120906
9.008e-05,0.01215
9.024e-05,0.011975
9.040e-05,0.0120156
9.056e-05,0.0119437
9.072e-05,0.012
9.088e-05,0.0120687
9.104e-05,0.0118875
9.120e-05,0.0120344
9.136e-05,0.0121187
9.152e-05,0.0119906
9.168e-05,0.0121437
9.184e-05,0.0119969
9.200e-05,0.0120594
9.216e-05,0.01195
9.232e-05,0.0120094
9.248e-05,0.0121844
9.264e-05,0.0120375
9.280e-05,0.0119594
9.296e-05,0.0121
9.312e-05,0.0120031
9.328e-05,0.0121312
9.344e-05,0.0120156
9.360e-05,0.0118844
9.376e-05,0.012
9.392e-05,0.0119562
9.408e-05,0.0119062
9.424e-05,0.0119906
9.440e-05,0.0119187
9.456e-05,0.0118594
9.472e-05,0.0121375
9.488e-05,0.0119969
9.504e-05,0.0120687
9.520e-05,0.011775
9.536e-05,0.0120469
9.552e-05,0.0118625
9.568e-05,0.0119344
9.584e-05,0.0120937
9.600e-05,0.0119125
9.616e-05,0.0120594
9.632e-05,0.0119375
9.648e-05,0.0118125
9.664e-05,0.0117625
9.680e-05,0.0118594
9.696e-05,0.0119344
9.712e-05,0.0119469
9.728e-05,0.0117719
9.744e-05,0.0119469
9.760e-05,0.01195
9.776e-05,0.0118125
9.792e-05,0.0120156
9.808e-05,0.012
9.824e-05,0.0119531
9.840e-05,0.0119937
9.856e-05,0.0119719
9.872e-05,0.0120156
9.888e-05,0.0120094
9.904e-05,0.0118312
9.920e-05,0.0118094
9.936e-05,0.0119625
9.952e-05,0.0118469
9.968e-05,0.0119312
9.984e-05,0.01195
1.000e-04,0.0118594
1.002e-04,0.0119719
1.003e-04,0.012
1.005e-04,0.0120469
1.006e-04,0.0120656
1.008e-04,0.011975
1.010e-04,0.0119031
1.011e-04,0.0119906
1.013e-04,0.0119125
1.014e-04,0.0119812
1.016e-04,0.0119062
1.018e-04,0.0119875
1.019e-04,0.0120562
1.021e-04,0.0120219
1.022e-04,0.0120562
1.024e-04,0.0119531
1.026e-04,0.0120344
1.027e-04,0.01205
1.029e-04,0.0120156
1.030e-04,0.0119656
1.032e-04,0.011875
1.034e-04,0.0120156
1.035e-04,0.0119156
1.037e-04,0.01185
1.038e-04,0.0118312
1.040e-04,0.0118094
1.042e-04,0.0119094
1.043e-04,0.0118875
1.045e-04,0.0119125
1.046e-04,0.0120594
1.048e-04,0.0120625
1.050e-04,0.01195
1.051e-04,0.01195
1.053e-04,0.0118531
1.054e-04,0.0121062
1.056e-04,0.0121062
1.058e-04,0.0121719
1.059e-04,0.0120437
1.061e-04,0.0119469
1.062e-04,0.0121094
1.064e-04,0.0120094
1.066e-04,0.0119437
1.067e-04,0.0120187
1.069e-04,0.0119031
1.070e-04,0.0118281
1.072e-04,0.0119031
1.074e-04,0.0119937
1.075e-04,0.0118844
1.077e-04,0.0118
1.078e-04,0.0120094
1.080e-04,0.0119031
1.082e-04,0.0119531
1.083e-04,0.0120437
1.085e-04,0.012025
1.086e-04,0.012
1.088e-04,0.0121094
1.090e-04,0.0119375
1.091e-04,0.01185
1.093e-04,0.0120062
1.094e-04,0.0120281
1.096e-04,0.0120906
1.098e-04,0.0119156
1.099e-04,0.0119469
1.101e-04,0.0119937
1.102e-04,0.0119937
1.104e-04,0.0119906
1.106e-04,0.0119969
1.107e-04,0.0118594
1.109e-04,0.0119937
1.110e-04,0.0119437
1.112e-04,0.0120469
1.114e-04,0.0119406
1.115e-04,0.0118812
1.117e-04,0.0121031
1.118e-04,0.0119875
1.120e-04,0.0120312
1.122e-04,0.0119531
1.123e-04,0.0119406
1.125e-04,0.0118125
1.126e-04,0.0118
1.128e-04,0.0117875
1.130e-04,0.0118937
1.131e-04,0.0118187
1.133e-04,0.0117875
1.134e-04,0.0118625
1.136e-04,0.0118719
1.138e-04,0.0119937
1.139e-04,0.0119531
1.141e-04,0.0118656
1.142e-04,0.0119437
1.144e-04,0.0120469
1.146e-04,0.0120156
1.147e-04,0.01195
1.149e-04,0.0117719
1.150e-04,0.0118906
1.152e-04,0.0117781
1.154e-04,0.0119094
1.155e-04,0.0119156
1.157e-04,0.0118437
1.158e-04,0.0119562
1.160e-04,0.01185
1.162e-04,0.0117781
1.163e-04,0.0118687
1.165e-04,0.0118906
1.166e-04,0.0119375
1.168e-04,0.0120406
1.170e-04,0.0119125
1.171e-04,0.0118594
1.173e-04,0.0118594
1.174e-04,0.0119094
1.176e-04,0.0118687
1.178e-04,0.0119187
1.179e-04,0.0118969
1.181e-04,0.0118812
1.182e-04,0.0119562
1.184e-04,0.0119375
1.186e-04,0.0117344
1.187e-04,0.0119344
1.189e-04,0.01205
1.190e-04,0.0120406
1.192e-04,0.0119531
1.194e-04,0.0120531
1.195e-04,0.0117125
1.197e-04,0.0118656
1.198e-04,0.0118219
1.200e-04,0.0119562
1.202e-04,0.0118656
1.203e-04,0.0120437
1.205e-04,0.0118594
1.206e-04,0.0119094
1.208e-04,0.0117906
1.210e-04,0.0118062
1.211e-04,0.0119281
1.213e-04,0.0120469
1.214e-04,0.0120094
1.216e-04,0.0119031
1.218e-04,0.0118687
1.219e-04,0.0119344
1.221e-04,0.0119812
1.222e-04,0.0118906
1.224e-04,0.0118469
1.226e-04,0.0117187
1.227e-04,0.0118156
1.229e-04,0.0118344
1.230e-04,0.0118562
1.232e-04,0.0117156
1.234e-04,0.0117906
1.235e-04,0.0117437
1.237e-04,0.0119469
1.238e-04,0.01205
1.240e-04,0.0117687
1.242e-04,0.0117906
1.243e-04,0.0118594
1.245e-04,0.0117625
1.246e-04,0.0116719
1.248e-04,0.0118875
1.250e-04,0.0118937
1.251e-04,0.0117437
1.253e-04,0.01185
1.254e-04,0.0119
1.256e-04,0.0118562
1.258e-04,0.0117844
1.259e-04,0.0119844
1.261e-04,0.0119187
1.262e-04,0.0118937
1.264e-04,0.0118437
1.266e-04,0.0118719
1.267e-04,0.0118531
1.269e-04,0.0119594
1.270e-04,0.0118969
1.272e-04,0.0120062
1.274e-04,0.0118937
1.275e-04,0.0119156
1.277e-04,0.0117219
1.278e-04,0.0117094
1.280e-04,0.0117031
1.282e-04,0.0116687
1.283e-04,0.0118906
1.285e-04,0.0119625
1.286e-04,0.0118187
1.288e-04,0.0119906
1.290e-04,0.0118687
1.291e-04,0.0118187
1.293e-04,0.0119844
1.294e-04,0.0117562
1.296e-04,0.0118594
1.298e-04,0.0118594
1.299e-04,0.011825
1.301e-04,0.0118844
1.302e-04,0.011925
1.304e-04,0.0119969
1.306e-04,0.0119906
1.307e-04,0.0119469
1.309e-04,0.0119562
1.310e-04,0.0118281
1.312e-04,0.0119
1.314e-04,0.0119937
1.315e-04,0.0119906
1.317e-04,0.011925
1.318e-04,0.011775
1.320e-04,0.0120406
1.322e-04,0.0118156
1.323e-04,0.0119125
1.325e-04,0.0119781
1.326e-04,0.0121812
1.328e-04,0.0120062
1.330e-04,0.0119156
1.331e-04,0.0119219
1.333e-04,0.0120875
1.334e-04,0.0117625
1.336e-04,0.0117531
1.338e-04,0.0119031
1.339e-04,0.0118719
1.341e-04,0.0118562
1.342e-04,0.01195
1.344e-04,0.0119156
1.346e-04,0.0119969
1.347e-04,0.0119375
1.349e-04,0.0119531
1.350e-04,0.0119156
1.352e-04,0.0118594
1.354e-04,0.0119531
1.355e-04,0.0118156
1.357e-04,0.0118594
1.358e-04,0.012025
1.360e-04,0.0120187
1.362e-04,0.0118094
1.363e-04,0.012
1.365e-04,0.0119406
1.366e-04,0.0118906
1.368e-04,0.0119812
1.370e-04,0.0117187
1.371e-04,0.0117562
1.373e-04,0.0119531
1.374e-04,0.0118281
1.376e-04,0.0117031
1.378e-04,0.0117875
1.379e-04,0.0117781
1.381e-04,0.0117906
1.382e-04,0.0117781
1.384e-04,0.0118437
1.386e-04,0.0119031
1.387e-04,0.0118531
1.389e-04,0.0118437
1.390e-04,0.0119406
1.392e-04,0.0120375
1.394e-04,0.0118781
1.395e-04,0.0118969
1.397e-04,0.0117656
1.398e-04,0.0117719
1.400e-04,0.0119406
1.402e-04,0.0118344
1.403e-04,0.0116719
1.405e-04,0.0119281
1.406e-04,0.0118906
1.408e-04,0.0119031
1.410e-04,0.011775
1.411e-04,0.0116844
1.413e-04,0.0118687
1.414e-04,0.0119
1.416e-04,0.0119156
1.418e-04,0.0119625
1.419e-04,0.0119125
1.421e-04,0.0118625
1.422e-04,0.0119031
1.424e-04,0.0120187
1.426e-04,0.0118812
1.427e-04,0.0118656
1.429e-04,0.0119437
1.430e-04,0.0118594
1.432e-04,0.0118594
1.434e-04,0.0115687
1.435e-04,0.0118187
1.437e-04,0.0118625
1.438e-04,0.0119937
1.440e-04,0.0119812
1.442e-04,0.0120937
1.443e-04,0.0119812
1.445e-04,0.0118625
1.446e-04,0.0118719
1.448e-04,0.011925
1.450e-04,0.01185
1.451e-04,0.0120469
1.453e-04,0.011875
1.454e-04,0.0119375
1.456e-04,0.0119781
1.458e-04,0.0121375
1.459e-04,0.0119281
1.461e-04,0.0120125
1.462e-04,0.0118812
1.464e-04,0.0119031
1.466e-04,0.0119187
1.467e-04,0.0119062
1.469e-04,0.0118875
1.470e-04,0.0119875
1.472e-04,0.0118562
1.474e-04,0.0118969
1.475e-04,0.0119062
1.477e-04,0.0119062
1.478e-04,0.0118781
1.480e-04,0.0118094
1.482e-04,0.0119094
1.483e-04,0.0119656
1.485e-04,0.0119844
1.486e-04,0.0119031
1.488e-04,0.0119781
1.490e-04,0.0119187
1.491e-04,0.0118344
1.493e-04,0.0118719
1.494e-04,0.0119937
1.496e-04,0.0119969
1.498e-04,0.0120469
1.499e-04,0.0119937
1.501e-04,0.0119594
1.502e-04,0.0119719
1.504e-04,0.0118812
1.506e-04,0.0119406
1.507e-04,0.0118281
1.509e-04,0.0119469
1.510e-04,0.0119
1.512e-04,0.0118437
1.514e-04,0.0120187
1.515e-04,0.0120125
1.517e-04,0.012
1.518e-04,0.0119531
1.520e-04,0.0120625
1.522e-04,0.012025
1.523e-04,0.0117531
1.525e-04,0.01165
1.526e-04,0.0113812
1.528e-04,0.0111219
1.530e-04,0.011225
1.531e-04,0.0112687
1.533e-04,0.0109875
1.534e-04,0.0110219

